# E (eV)  ldosup(E)  ldosdw(E) pdosup(E)  pdosdw(E)  pdosup(E)  pdosdw(E)  pdosup(E)  pdosdw(E) 
  13.000  0.955E-03  0.127E-02  0.318E-03  0.423E-03  0.318E-03  0.423E-03  0.318E-03  0.423E-03
  13.020  0.953E-03  0.122E-02  0.318E-03  0.406E-03  0.318E-03  0.406E-03  0.318E-03  0.406E-03
  13.040  0.990E-03  0.116E-02  0.330E-03  0.386E-03  0.330E-03  0.386E-03  0.330E-03  0.386E-03
  13.060  0.107E-02  0.109E-02  0.357E-03  0.363E-03  0.357E-03  0.363E-03  0.357E-03  0.363E-03
  13.080  0.120E-02  0.102E-02  0.400E-03  0.339E-03  0.400E-03  0.339E-03  0.400E-03  0.339E-03
  13.100  0.137E-02  0.946E-03  0.457E-03  0.315E-03  0.457E-03  0.315E-03  0.457E-03  0.315E-03
  13.120  0.158E-02  0.887E-03  0.526E-03  0.296E-03  0.526E-03  0.296E-03  0.526E-03  0.296E-03
  13.140  0.180E-02  0.847E-03  0.602E-03  0.282E-03  0.602E-03  0.282E-03  0.602E-03  0.282E-03
  13.160  0.204E-02  0.832E-03  0.679E-03  0.277E-03  0.679E-03  0.277E-03  0.679E-03  0.277E-03
  13.180  0.226E-02  0.842E-03  0.754E-03  0.281E-03  0.754E-03  0.281E-03  0.754E-03  0.281E-03
  13.200  0.246E-02  0.875E-03  0.819E-03  0.292E-03  0.819E-03  0.292E-03  0.819E-03  0.292E-03
  13.220  0.261E-02  0.924E-03  0.871E-03  0.308E-03  0.871E-03  0.308E-03  0.871E-03  0.308E-03
  13.240  0.272E-02  0.980E-03  0.906E-03  0.327E-03  0.906E-03  0.327E-03  0.906E-03  0.327E-03
  13.260  0.277E-02  0.103E-02  0.922E-03  0.344E-03  0.922E-03  0.344E-03  0.922E-03  0.344E-03
  13.280  0.275E-02  0.107E-02  0.918E-03  0.357E-03  0.918E-03  0.357E-03  0.918E-03  0.357E-03
  13.300  0.268E-02  0.109E-02  0.895E-03  0.364E-03  0.895E-03  0.364E-03  0.895E-03  0.364E-03
  13.320  0.256E-02  0.109E-02  0.855E-03  0.364E-03  0.855E-03  0.364E-03  0.855E-03  0.364E-03
  13.340  0.241E-02  0.107E-02  0.803E-03  0.356E-03  0.803E-03  0.356E-03  0.803E-03  0.356E-03
  13.360  0.223E-02  0.103E-02  0.742E-03  0.343E-03  0.742E-03  0.343E-03  0.742E-03  0.343E-03
  13.380  0.204E-02  0.985E-03  0.679E-03  0.328E-03  0.679E-03  0.328E-03  0.679E-03  0.328E-03
  13.400  0.185E-02  0.946E-03  0.617E-03  0.315E-03  0.617E-03  0.315E-03  0.617E-03  0.315E-03
  13.420  0.168E-02  0.924E-03  0.561E-03  0.308E-03  0.561E-03  0.308E-03  0.561E-03  0.308E-03
  13.440  0.154E-02  0.928E-03  0.514E-03  0.309E-03  0.514E-03  0.309E-03  0.514E-03  0.309E-03
  13.460  0.143E-02  0.966E-03  0.478E-03  0.322E-03  0.478E-03  0.322E-03  0.478E-03  0.322E-03
  13.480  0.135E-02  0.104E-02  0.451E-03  0.347E-03  0.451E-03  0.347E-03  0.451E-03  0.347E-03
  13.500  0.131E-02  0.115E-02  0.435E-03  0.382E-03  0.435E-03  0.382E-03  0.435E-03  0.382E-03
  13.520  0.128E-02  0.128E-02  0.428E-03  0.425E-03  0.428E-03  0.425E-03  0.428E-03  0.425E-03
  13.540  0.129E-02  0.142E-02  0.429E-03  0.472E-03  0.429E-03  0.472E-03  0.429E-03  0.472E-03
  13.560  0.131E-02  0.156E-02  0.438E-03  0.519E-03  0.438E-03  0.519E-03  0.438E-03  0.519E-03
  13.580  0.136E-02  0.168E-02  0.453E-03  0.560E-03  0.453E-03  0.560E-03  0.453E-03  0.560E-03
  13.600  0.143E-02  0.178E-02  0.476E-03  0.594E-03  0.476E-03  0.594E-03  0.476E-03  0.594E-03
  13.620  0.151E-02  0.185E-02  0.504E-03  0.618E-03  0.504E-03  0.618E-03  0.504E-03  0.618E-03
  13.640  0.161E-02  0.190E-02  0.536E-03  0.634E-03  0.536E-03  0.634E-03  0.536E-03  0.634E-03
  13.660  0.171E-02  0.193E-02  0.571E-03  0.643E-03  0.571E-03  0.643E-03  0.571E-03  0.643E-03
  13.680  0.182E-02  0.195E-02  0.606E-03  0.651E-03  0.606E-03  0.651E-03  0.606E-03  0.651E-03
  13.700  0.192E-02  0.198E-02  0.639E-03  0.662E-03  0.639E-03  0.662E-03  0.639E-03  0.662E-03
  13.720  0.200E-02  0.203E-02  0.667E-03  0.677E-03  0.667E-03  0.677E-03  0.667E-03  0.677E-03
  13.740  0.207E-02  0.210E-02  0.689E-03  0.700E-03  0.689E-03  0.700E-03  0.689E-03  0.700E-03
  13.760  0.211E-02  0.219E-02  0.705E-03  0.729E-03  0.705E-03  0.729E-03  0.705E-03  0.729E-03
  13.780  0.215E-02  0.228E-02  0.715E-03  0.761E-03  0.715E-03  0.761E-03  0.715E-03  0.761E-03
  13.800  0.216E-02  0.238E-02  0.721E-03  0.792E-03  0.721E-03  0.792E-03  0.721E-03  0.792E-03
  13.820  0.217E-02  0.245E-02  0.723E-03  0.816E-03  0.723E-03  0.816E-03  0.723E-03  0.816E-03
  13.840  0.217E-02  0.249E-02  0.724E-03  0.828E-03  0.724E-03  0.828E-03  0.724E-03  0.828E-03
  13.860  0.217E-02  0.248E-02  0.722E-03  0.826E-03  0.722E-03  0.826E-03  0.722E-03  0.826E-03
  13.880  0.215E-02  0.242E-02  0.718E-03  0.807E-03  0.718E-03  0.807E-03  0.718E-03  0.807E-03
  13.900  0.214E-02  0.232E-02  0.712E-03  0.772E-03  0.712E-03  0.772E-03  0.712E-03  0.772E-03
  13.920  0.211E-02  0.217E-02  0.704E-03  0.723E-03  0.704E-03  0.723E-03  0.704E-03  0.723E-03
  13.940  0.207E-02  0.199E-02  0.691E-03  0.663E-03  0.691E-03  0.663E-03  0.691E-03  0.663E-03
  13.960  0.203E-02  0.179E-02  0.675E-03  0.598E-03  0.675E-03  0.598E-03  0.675E-03  0.598E-03
  13.980  0.196E-02  0.160E-02  0.655E-03  0.532E-03  0.655E-03  0.532E-03  0.655E-03  0.532E-03
  14.000  0.189E-02  0.141E-02  0.630E-03  0.471E-03  0.630E-03  0.471E-03  0.630E-03  0.471E-03
  14.020  0.181E-02  0.126E-02  0.602E-03  0.420E-03  0.602E-03  0.420E-03  0.602E-03  0.420E-03
  14.040  0.171E-02  0.115E-02  0.571E-03  0.383E-03  0.571E-03  0.383E-03  0.571E-03  0.383E-03
  14.060  0.161E-02  0.109E-02  0.538E-03  0.362E-03  0.538E-03  0.362E-03  0.538E-03  0.362E-03
  14.080  0.151E-02  0.107E-02  0.503E-03  0.358E-03  0.503E-03  0.358E-03  0.503E-03  0.358E-03
  14.100  0.140E-02  0.111E-02  0.466E-03  0.371E-03  0.466E-03  0.371E-03  0.466E-03  0.371E-03
  14.120  0.129E-02  0.119E-02  0.430E-03  0.396E-03  0.430E-03  0.396E-03  0.430E-03  0.396E-03
  14.140  0.118E-02  0.129E-02  0.393E-03  0.429E-03  0.393E-03  0.429E-03  0.393E-03  0.429E-03
  14.160  0.107E-02  0.139E-02  0.356E-03  0.464E-03  0.356E-03  0.464E-03  0.356E-03  0.464E-03
  14.180  0.964E-03  0.149E-02  0.321E-03  0.496E-03  0.321E-03  0.496E-03  0.321E-03  0.496E-03
  14.200  0.866E-03  0.155E-02  0.289E-03  0.518E-03  0.289E-03  0.518E-03  0.289E-03  0.518E-03
  14.220  0.778E-03  0.159E-02  0.259E-03  0.530E-03  0.259E-03  0.530E-03  0.259E-03  0.530E-03
  14.240  0.703E-03  0.159E-02  0.234E-03  0.530E-03  0.234E-03  0.530E-03  0.234E-03  0.530E-03
  14.260  0.641E-03  0.156E-02  0.214E-03  0.522E-03  0.214E-03  0.522E-03  0.214E-03  0.522E-03
  14.280  0.594E-03  0.153E-02  0.198E-03  0.509E-03  0.198E-03  0.509E-03  0.198E-03  0.509E-03
  14.300  0.560E-03  0.149E-02  0.187E-03  0.497E-03  0.187E-03  0.497E-03  0.187E-03  0.497E-03
  14.320  0.537E-03  0.148E-02  0.179E-03  0.492E-03  0.179E-03  0.492E-03  0.179E-03  0.492E-03
  14.340  0.523E-03  0.149E-02  0.174E-03  0.498E-03  0.174E-03  0.498E-03  0.174E-03  0.498E-03
  14.360  0.513E-03  0.155E-02  0.171E-03  0.517E-03  0.171E-03  0.517E-03  0.171E-03  0.517E-03
  14.380  0.504E-03  0.165E-02  0.168E-03  0.551E-03  0.168E-03  0.551E-03  0.168E-03  0.551E-03
  14.400  0.494E-03  0.179E-02  0.165E-03  0.598E-03  0.165E-03  0.598E-03  0.165E-03  0.598E-03
  14.420  0.483E-03  0.197E-02  0.161E-03  0.655E-03  0.161E-03  0.655E-03  0.161E-03  0.655E-03
  14.440  0.469E-03  0.216E-02  0.156E-03  0.719E-03  0.156E-03  0.719E-03  0.156E-03  0.719E-03
  14.460  0.455E-03  0.235E-02  0.152E-03  0.785E-03  0.152E-03  0.785E-03  0.152E-03  0.785E-03
  14.480  0.444E-03  0.254E-02  0.148E-03  0.848E-03  0.148E-03  0.848E-03  0.148E-03  0.848E-03
  14.500  0.439E-03  0.271E-02  0.146E-03  0.905E-03  0.146E-03  0.905E-03  0.146E-03  0.905E-03
  14.520  0.444E-03  0.286E-02  0.148E-03  0.953E-03  0.148E-03  0.953E-03  0.148E-03  0.953E-03
  14.540  0.461E-03  0.297E-02  0.154E-03  0.989E-03  0.154E-03  0.989E-03  0.154E-03  0.989E-03
  14.560  0.494E-03  0.303E-02  0.165E-03  0.101E-02  0.165E-03  0.101E-02  0.165E-03  0.101E-02
  14.580  0.543E-03  0.306E-02  0.181E-03  0.102E-02  0.181E-03  0.102E-02  0.181E-03  0.102E-02
  14.600  0.607E-03  0.304E-02  0.202E-03  0.101E-02  0.202E-03  0.101E-02  0.202E-03  0.101E-02
  14.620  0.687E-03  0.298E-02  0.229E-03  0.993E-03  0.229E-03  0.993E-03  0.229E-03  0.993E-03
  14.640  0.779E-03  0.287E-02  0.260E-03  0.958E-03  0.260E-03  0.958E-03  0.260E-03  0.958E-03
  14.660  0.879E-03  0.272E-02  0.293E-03  0.908E-03  0.293E-03  0.908E-03  0.293E-03  0.908E-03
  14.680  0.984E-03  0.254E-02  0.328E-03  0.846E-03  0.328E-03  0.846E-03  0.328E-03  0.846E-03
  14.700  0.109E-02  0.233E-02  0.362E-03  0.775E-03  0.362E-03  0.775E-03  0.362E-03  0.775E-03
  14.720  0.118E-02  0.210E-02  0.395E-03  0.699E-03  0.395E-03  0.699E-03  0.395E-03  0.699E-03
  14.740  0.127E-02  0.187E-02  0.424E-03  0.623E-03  0.424E-03  0.623E-03  0.424E-03  0.623E-03
  14.760  0.135E-02  0.165E-02  0.450E-03  0.551E-03  0.450E-03  0.551E-03  0.450E-03  0.551E-03
  14.780  0.141E-02  0.147E-02  0.471E-03  0.489E-03  0.471E-03  0.489E-03  0.471E-03  0.489E-03
  14.800  0.146E-02  0.132E-02  0.487E-03  0.441E-03  0.487E-03  0.441E-03  0.487E-03  0.441E-03
  14.820  0.150E-02  0.122E-02  0.499E-03  0.407E-03  0.499E-03  0.407E-03  0.499E-03  0.407E-03
  14.840  0.152E-02  0.117E-02  0.508E-03  0.388E-03  0.508E-03  0.388E-03  0.508E-03  0.388E-03
  14.860  0.154E-02  0.115E-02  0.512E-03  0.384E-03  0.512E-03  0.384E-03  0.512E-03  0.384E-03
  14.880  0.154E-02  0.117E-02  0.514E-03  0.390E-03  0.514E-03  0.390E-03  0.514E-03  0.390E-03
  14.900  0.153E-02  0.121E-02  0.511E-03  0.404E-03  0.511E-03  0.404E-03  0.511E-03  0.404E-03
  14.920  0.152E-02  0.127E-02  0.505E-03  0.424E-03  0.505E-03  0.424E-03  0.505E-03  0.424E-03
  14.940  0.149E-02  0.134E-02  0.496E-03  0.446E-03  0.496E-03  0.446E-03  0.496E-03  0.446E-03
  14.960  0.145E-02  0.141E-02  0.483E-03  0.469E-03  0.483E-03  0.469E-03  0.483E-03  0.469E-03
  14.980  0.140E-02  0.147E-02  0.468E-03  0.491E-03  0.468E-03  0.491E-03  0.468E-03  0.491E-03
  15.000  0.136E-02  0.154E-02  0.452E-03  0.513E-03  0.452E-03  0.513E-03  0.452E-03  0.513E-03
  15.020  0.131E-02  0.160E-02  0.438E-03  0.534E-03  0.438E-03  0.534E-03  0.438E-03  0.534E-03
  15.040  0.128E-02  0.166E-02  0.426E-03  0.552E-03  0.426E-03  0.552E-03  0.426E-03  0.552E-03
  15.060  0.126E-02  0.170E-02  0.419E-03  0.568E-03  0.419E-03  0.568E-03  0.419E-03  0.568E-03
  15.080  0.125E-02  0.174E-02  0.416E-03  0.581E-03  0.416E-03  0.581E-03  0.416E-03  0.581E-03
  15.100  0.125E-02  0.177E-02  0.418E-03  0.591E-03  0.418E-03  0.591E-03  0.418E-03  0.591E-03
  15.120  0.127E-02  0.179E-02  0.424E-03  0.597E-03  0.424E-03  0.597E-03  0.424E-03  0.597E-03
  15.140  0.130E-02  0.181E-02  0.434E-03  0.602E-03  0.434E-03  0.602E-03  0.434E-03  0.602E-03
  15.160  0.134E-02  0.182E-02  0.448E-03  0.606E-03  0.448E-03  0.606E-03  0.448E-03  0.606E-03
  15.180  0.140E-02  0.183E-02  0.465E-03  0.610E-03  0.465E-03  0.610E-03  0.465E-03  0.610E-03
  15.200  0.146E-02  0.185E-02  0.486E-03  0.616E-03  0.486E-03  0.616E-03  0.486E-03  0.616E-03
  15.220  0.154E-02  0.187E-02  0.512E-03  0.624E-03  0.512E-03  0.624E-03  0.512E-03  0.624E-03
  15.240  0.163E-02  0.190E-02  0.543E-03  0.635E-03  0.543E-03  0.635E-03  0.543E-03  0.635E-03
  15.260  0.173E-02  0.194E-02  0.577E-03  0.646E-03  0.577E-03  0.646E-03  0.577E-03  0.646E-03
  15.280  0.184E-02  0.197E-02  0.613E-03  0.657E-03  0.613E-03  0.657E-03  0.613E-03  0.657E-03
  15.300  0.195E-02  0.199E-02  0.650E-03  0.664E-03  0.650E-03  0.664E-03  0.650E-03  0.664E-03
  15.320  0.205E-02  0.200E-02  0.685E-03  0.667E-03  0.685E-03  0.667E-03  0.685E-03  0.667E-03
  15.340  0.215E-02  0.199E-02  0.716E-03  0.663E-03  0.716E-03  0.663E-03  0.716E-03  0.663E-03
  15.360  0.222E-02  0.196E-02  0.741E-03  0.653E-03  0.741E-03  0.653E-03  0.741E-03  0.653E-03
  15.380  0.228E-02  0.191E-02  0.761E-03  0.636E-03  0.761E-03  0.636E-03  0.761E-03  0.636E-03
  15.400  0.232E-02  0.184E-02  0.773E-03  0.614E-03  0.773E-03  0.614E-03  0.773E-03  0.614E-03
  15.420  0.234E-02  0.177E-02  0.780E-03  0.589E-03  0.780E-03  0.589E-03  0.780E-03  0.589E-03
  15.440  0.234E-02  0.169E-02  0.780E-03  0.562E-03  0.780E-03  0.562E-03  0.780E-03  0.562E-03
  15.460  0.233E-02  0.161E-02  0.776E-03  0.536E-03  0.776E-03  0.536E-03  0.776E-03  0.536E-03
  15.480  0.230E-02  0.153E-02  0.767E-03  0.510E-03  0.767E-03  0.510E-03  0.767E-03  0.510E-03
  15.500  0.226E-02  0.146E-02  0.754E-03  0.485E-03  0.754E-03  0.485E-03  0.754E-03  0.485E-03
  15.520  0.221E-02  0.138E-02  0.738E-03  0.461E-03  0.738E-03  0.461E-03  0.738E-03  0.461E-03
  15.540  0.216E-02  0.131E-02  0.719E-03  0.438E-03  0.719E-03  0.438E-03  0.719E-03  0.438E-03
  15.560  0.210E-02  0.124E-02  0.699E-03  0.414E-03  0.699E-03  0.414E-03  0.699E-03  0.414E-03
  15.580  0.203E-02  0.117E-02  0.678E-03  0.391E-03  0.678E-03  0.391E-03  0.678E-03  0.391E-03
  15.600  0.197E-02  0.110E-02  0.658E-03  0.368E-03  0.658E-03  0.368E-03  0.658E-03  0.368E-03
  15.620  0.191E-02  0.104E-02  0.637E-03  0.347E-03  0.637E-03  0.347E-03  0.637E-03  0.347E-03
  15.640  0.185E-02  0.983E-03  0.617E-03  0.328E-03  0.617E-03  0.328E-03  0.617E-03  0.328E-03
  15.660  0.179E-02  0.932E-03  0.597E-03  0.311E-03  0.597E-03  0.311E-03  0.597E-03  0.311E-03
  15.680  0.172E-02  0.886E-03  0.574E-03  0.295E-03  0.574E-03  0.295E-03  0.574E-03  0.295E-03
  15.700  0.165E-02  0.846E-03  0.549E-03  0.282E-03  0.549E-03  0.282E-03  0.549E-03  0.282E-03
  15.720  0.157E-02  0.808E-03  0.522E-03  0.269E-03  0.522E-03  0.269E-03  0.522E-03  0.269E-03
  15.740  0.147E-02  0.772E-03  0.492E-03  0.257E-03  0.492E-03  0.257E-03  0.492E-03  0.257E-03
  15.760  0.138E-02  0.734E-03  0.460E-03  0.245E-03  0.460E-03  0.245E-03  0.460E-03  0.245E-03
  15.780  0.128E-02  0.695E-03  0.428E-03  0.232E-03  0.428E-03  0.232E-03  0.428E-03  0.232E-03
  15.800  0.119E-02  0.655E-03  0.397E-03  0.218E-03  0.397E-03  0.218E-03  0.397E-03  0.218E-03
  15.820  0.110E-02  0.616E-03  0.368E-03  0.205E-03  0.368E-03  0.205E-03  0.368E-03  0.205E-03
  15.840  0.103E-02  0.579E-03  0.343E-03  0.193E-03  0.343E-03  0.193E-03  0.343E-03  0.193E-03
  15.860  0.965E-03  0.548E-03  0.322E-03  0.183E-03  0.322E-03  0.183E-03  0.322E-03  0.183E-03
  15.880  0.915E-03  0.523E-03  0.305E-03  0.174E-03  0.305E-03  0.174E-03  0.305E-03  0.174E-03
  15.900  0.879E-03  0.506E-03  0.293E-03  0.169E-03  0.293E-03  0.169E-03  0.293E-03  0.169E-03
  15.920  0.857E-03  0.496E-03  0.286E-03  0.165E-03  0.286E-03  0.165E-03  0.286E-03  0.165E-03
  15.940  0.850E-03  0.493E-03  0.283E-03  0.164E-03  0.283E-03  0.164E-03  0.283E-03  0.164E-03
  15.960  0.856E-03  0.494E-03  0.285E-03  0.165E-03  0.285E-03  0.165E-03  0.285E-03  0.165E-03
  15.980  0.872E-03  0.497E-03  0.291E-03  0.166E-03  0.291E-03  0.166E-03  0.291E-03  0.166E-03
  16.000  0.895E-03  0.501E-03  0.298E-03  0.167E-03  0.298E-03  0.167E-03  0.298E-03  0.167E-03
  16.020  0.921E-03  0.503E-03  0.307E-03  0.168E-03  0.307E-03  0.168E-03  0.307E-03  0.168E-03
  16.040  0.944E-03  0.504E-03  0.315E-03  0.168E-03  0.315E-03  0.168E-03  0.315E-03  0.168E-03
  16.060  0.960E-03  0.506E-03  0.320E-03  0.169E-03  0.320E-03  0.169E-03  0.320E-03  0.169E-03
  16.080  0.966E-03  0.512E-03  0.322E-03  0.171E-03  0.322E-03  0.171E-03  0.322E-03  0.171E-03
  16.100  0.962E-03  0.525E-03  0.321E-03  0.175E-03  0.321E-03  0.175E-03  0.321E-03  0.175E-03
  16.120  0.948E-03  0.551E-03  0.316E-03  0.184E-03  0.316E-03  0.184E-03  0.316E-03  0.184E-03
  16.140  0.930E-03  0.594E-03  0.310E-03  0.198E-03  0.310E-03  0.198E-03  0.310E-03  0.198E-03
  16.160  0.911E-03  0.656E-03  0.304E-03  0.219E-03  0.304E-03  0.219E-03  0.304E-03  0.219E-03
  16.180  0.898E-03  0.739E-03  0.299E-03  0.246E-03  0.299E-03  0.246E-03  0.299E-03  0.246E-03
  16.200  0.896E-03  0.843E-03  0.299E-03  0.281E-03  0.299E-03  0.281E-03  0.299E-03  0.281E-03
  16.220  0.908E-03  0.964E-03  0.303E-03  0.321E-03  0.303E-03  0.321E-03  0.303E-03  0.321E-03
  16.240  0.933E-03  0.110E-02  0.311E-03  0.367E-03  0.311E-03  0.367E-03  0.311E-03  0.367E-03
  16.260  0.968E-03  0.125E-02  0.323E-03  0.415E-03  0.323E-03  0.415E-03  0.323E-03  0.415E-03
  16.280  0.101E-02  0.140E-02  0.335E-03  0.466E-03  0.335E-03  0.466E-03  0.335E-03  0.466E-03
  16.300  0.104E-02  0.155E-02  0.347E-03  0.517E-03  0.347E-03  0.517E-03  0.347E-03  0.517E-03
  16.320  0.106E-02  0.170E-02  0.354E-03  0.568E-03  0.354E-03  0.568E-03  0.354E-03  0.568E-03
  16.340  0.106E-02  0.185E-02  0.354E-03  0.618E-03  0.354E-03  0.618E-03  0.354E-03  0.618E-03
  16.360  0.104E-02  0.200E-02  0.347E-03  0.667E-03  0.347E-03  0.667E-03  0.347E-03  0.667E-03
  16.380  0.996E-03  0.214E-02  0.332E-03  0.714E-03  0.332E-03  0.714E-03  0.332E-03  0.714E-03
  16.400  0.929E-03  0.227E-02  0.310E-03  0.757E-03  0.310E-03  0.757E-03  0.310E-03  0.757E-03
  16.420  0.845E-03  0.239E-02  0.282E-03  0.797E-03  0.282E-03  0.797E-03  0.282E-03  0.797E-03
  16.440  0.751E-03  0.249E-02  0.250E-03  0.832E-03  0.250E-03  0.832E-03  0.250E-03  0.832E-03
  16.460  0.655E-03  0.258E-02  0.218E-03  0.859E-03  0.218E-03  0.859E-03  0.218E-03  0.859E-03
  16.480  0.563E-03  0.264E-02  0.188E-03  0.879E-03  0.188E-03  0.879E-03  0.188E-03  0.879E-03
  16.500  0.479E-03  0.267E-02  0.160E-03  0.892E-03  0.160E-03  0.892E-03  0.160E-03  0.892E-03
  16.520  0.407E-03  0.269E-02  0.136E-03  0.898E-03  0.136E-03  0.898E-03  0.136E-03  0.898E-03
  16.540  0.348E-03  0.270E-02  0.116E-03  0.901E-03  0.116E-03  0.901E-03  0.116E-03  0.901E-03
  16.560  0.301E-03  0.271E-02  0.100E-03  0.903E-03  0.100E-03  0.903E-03  0.100E-03  0.903E-03
  16.580  0.266E-03  0.272E-02  0.887E-04  0.907E-03  0.887E-04  0.907E-03  0.887E-04  0.907E-03
  16.600  0.242E-03  0.274E-02  0.805E-04  0.914E-03  0.805E-04  0.914E-03  0.805E-04  0.914E-03
  16.620  0.227E-03  0.278E-02  0.756E-04  0.926E-03  0.756E-04  0.926E-03  0.756E-04  0.926E-03
  16.640  0.220E-03  0.282E-02  0.734E-04  0.939E-03  0.734E-04  0.939E-03  0.734E-04  0.939E-03
  16.660  0.222E-03  0.286E-02  0.739E-04  0.952E-03  0.739E-04  0.952E-03  0.739E-04  0.952E-03
  16.680  0.231E-03  0.288E-02  0.769E-04  0.961E-03  0.769E-04  0.961E-03  0.769E-04  0.961E-03
  16.700  0.247E-03  0.289E-02  0.824E-04  0.964E-03  0.824E-04  0.964E-03  0.824E-04  0.964E-03
  16.720  0.271E-03  0.287E-02  0.902E-04  0.956E-03  0.902E-04  0.956E-03  0.902E-04  0.956E-03
  16.740  0.301E-03  0.282E-02  0.100E-03  0.940E-03  0.100E-03  0.940E-03  0.100E-03  0.940E-03
  16.760  0.337E-03  0.275E-02  0.112E-03  0.915E-03  0.112E-03  0.915E-03  0.112E-03  0.915E-03
  16.780  0.378E-03  0.266E-02  0.126E-03  0.886E-03  0.126E-03  0.886E-03  0.126E-03  0.886E-03
  16.800  0.424E-03  0.256E-02  0.141E-03  0.855E-03  0.141E-03  0.855E-03  0.141E-03  0.855E-03
  16.820  0.473E-03  0.248E-02  0.158E-03  0.826E-03  0.158E-03  0.826E-03  0.158E-03  0.826E-03
  16.840  0.523E-03  0.241E-02  0.174E-03  0.803E-03  0.174E-03  0.803E-03  0.174E-03  0.803E-03
  16.860  0.573E-03  0.237E-02  0.191E-03  0.788E-03  0.191E-03  0.788E-03  0.191E-03  0.788E-03
  16.880  0.620E-03  0.235E-02  0.207E-03  0.782E-03  0.207E-03  0.782E-03  0.207E-03  0.782E-03
  16.900  0.660E-03  0.235E-02  0.220E-03  0.784E-03  0.220E-03  0.784E-03  0.220E-03  0.784E-03
  16.920  0.692E-03  0.238E-02  0.231E-03  0.793E-03  0.231E-03  0.793E-03  0.231E-03  0.793E-03
  16.940  0.712E-03  0.242E-02  0.237E-03  0.807E-03  0.237E-03  0.807E-03  0.237E-03  0.807E-03
  16.960  0.719E-03  0.248E-02  0.240E-03  0.825E-03  0.240E-03  0.825E-03  0.240E-03  0.825E-03
  16.980  0.711E-03  0.254E-02  0.237E-03  0.846E-03  0.237E-03  0.846E-03  0.237E-03  0.846E-03
  17.000  0.691E-03  0.261E-02  0.230E-03  0.869E-03  0.230E-03  0.869E-03  0.230E-03  0.869E-03
  17.020  0.659E-03  0.268E-02  0.220E-03  0.892E-03  0.220E-03  0.892E-03  0.220E-03  0.892E-03
  17.040  0.620E-03  0.274E-02  0.207E-03  0.915E-03  0.207E-03  0.915E-03  0.207E-03  0.915E-03
  17.060  0.578E-03  0.281E-02  0.193E-03  0.937E-03  0.193E-03  0.937E-03  0.193E-03  0.937E-03
  17.080  0.537E-03  0.288E-02  0.179E-03  0.958E-03  0.179E-03  0.958E-03  0.179E-03  0.958E-03
